BBN, Tritium decay, in eV^-1 cm^-2 s^-1 	

    Energy[eV]         Flux   

   5.1000000e-06   3.4396000e-05
   5.2000000e-06   3.5724000e-05
   5.3000000e-06   3.7075000e-05
   5.4000000e-06   3.8449000e-05
   5.5000000e-06   3.9847000e-05
   5.6000000e-06   4.1269000e-05
   5.7000000e-06   4.2714000e-05
   5.8000000e-06   4.4182000e-05
   5.9000000e-06   4.5673000e-05
   6.0000000e-06   4.7188000e-05
   6.1000000e-06   4.8726000e-05
   6.2000000e-06   5.0286000e-05
   6.3000000e-06   5.1870000e-05
   6.4000000e-06   5.3476000e-05
   6.5000000e-06   5.5105000e-05
   6.6000000e-06   5.6757000e-05
   6.7000000e-06   5.8431000e-05
   6.8000000e-06   6.0128000e-05
   6.9000000e-06   6.1847000e-05
   7.0000000e-06   6.3589000e-05
   7.1000000e-06   6.5353000e-05
   7.2000000e-06   6.7139000e-05
   7.3000000e-06   6.8947000e-05
   7.4000000e-06   7.0777000e-05
   7.5000000e-06   7.2629000e-05
   7.6000000e-06   7.4502000e-05
   7.7000000e-06   7.6398000e-05
   7.8000000e-06   7.8315000e-05
   7.9000000e-06   8.0254000e-05
   8.0000000e-06   8.2214000e-05
   8.1000000e-06   8.4196000e-05
   8.2000000e-06   8.6199000e-05
   8.3000000e-06   8.8223000e-05
   8.4000000e-06   9.0268000e-05
   8.5000000e-06   9.2335000e-05
   8.6000000e-06   9.4422000e-05
   8.7000000e-06   9.6530000e-05
   8.8000000e-06   9.8659000e-05
   8.9000000e-06   1.0081000e-04
   9.0000000e-06   1.0298000e-04
   9.1000000e-06   1.0517000e-04
   9.2000000e-06   1.0738000e-04
   9.3000000e-06   1.0961000e-04
   9.4000000e-06   1.1187000e-04
   9.5000000e-06   1.1414000e-04
   9.6000000e-06   1.1643000e-04
   9.7000000e-06   1.1874000e-04
   9.8000000e-06   1.2108000e-04
   9.9000000e-06   1.2343000e-04
   1.0000000e-05   1.2580000e-04
   1.1000000e-05   1.5059000e-04
   1.2000000e-05   1.7726000e-04
   1.3000000e-05   2.0573000e-04
   1.4000000e-05   2.3589000e-04
   1.5000000e-05   2.6767000e-04
   1.6000000e-05   3.0095000e-04
   1.7000000e-05   3.3565000e-04
   1.8000000e-05   3.7166000e-04
   1.9000000e-05   4.0889000e-04
   2.0000000e-05   4.4722000e-04
   2.1000000e-05   4.8655000e-04
   2.2000000e-05   5.2677000e-04
   2.3000000e-05   5.6777000e-04
   2.4000000e-05   6.0943000e-04
   2.5000000e-05   6.5162000e-04
   2.6000000e-05   6.9422000e-04
   2.7000000e-05   7.3710000e-04
   2.8000000e-05   7.8012000e-04
   2.9000000e-05   8.2315000e-04
   3.0000000e-05   8.6604000e-04
   3.1000000e-05   9.0863000e-04
   3.2000000e-05   9.5075000e-04
   3.3000000e-05   9.9226000e-04
   3.4000000e-05   1.0329000e-03
   3.5000000e-05   1.0726000e-03
   3.6000000e-05   1.1111000e-03
   3.7000000e-05   1.1482000e-03
   3.8000000e-05   1.1836000e-03
   3.9000000e-05   1.2171000e-03
   4.0000000e-05   1.2485000e-03
   4.1000000e-05   1.2773000e-03
   4.2000000e-05   1.3033000e-03
   4.3000000e-05   1.3262000e-03
   4.4000000e-05   1.3455000e-03
   4.5000000e-05   1.3608000e-03
   4.6000000e-05   1.3716000e-03
   4.7000000e-05   1.3773000e-03
   4.8000000e-05   1.3773000e-03
   4.9000000e-05   1.3709000e-03
   5.0000000e-05   1.3572000e-03
   5.1000000e-05   1.3350000e-03
   5.2000000e-05   1.3031000e-03
   5.3000000e-05   1.2600000e-03
   5.4000000e-05   1.2040000e-03
   5.5000000e-05   1.1334000e-03
   5.6000000e-05   1.0469000e-03
   5.7000000e-05   9.4417000e-04
   5.8000000e-05   8.2753000e-04
   5.9000000e-05   7.0305000e-04
   6.0000000e-05   5.8011000e-04
   6.1000000e-05   4.6801000e-04
   6.2000000e-05   3.7263000e-04
   6.3000000e-05   2.9567000e-04
   6.4000000e-05   2.3590000e-04
   6.5000000e-05   1.9067000e-04
   6.6000000e-05   1.5697000e-04
   6.7000000e-05   1.3207000e-04
   6.8000000e-05   1.1368000e-04
   6.9000000e-05   1.0005000e-04
   7.0000000e-05   8.9870000e-05
   7.1000000e-05   8.2182000e-05
   7.2000000e-05   7.6301000e-05
   7.3000000e-05   7.1739000e-05
   7.4000000e-05   6.8143000e-05
   7.5000000e-05   6.5263000e-05
   7.6000000e-05   6.2922000e-05
   7.7000000e-05   6.0991000e-05
   7.8000000e-05   5.9377000e-05
   7.9000000e-05   5.8013000e-05
   8.0000000e-05   5.6851000e-05
   8.1000000e-05   5.5852000e-05
   8.2000000e-05   5.4990000e-05
   8.3000000e-05   5.4241000e-05
   8.4000000e-05   5.3588000e-05
   8.5000000e-05   5.3019000e-05
   8.6000000e-05   5.2522000e-05
   8.7000000e-05   5.2087000e-05
   8.8000000e-05   5.1708000e-05
   8.9000000e-05   5.1378000e-05
   9.0000000e-05   5.1091000e-05
   9.1000000e-05   5.0844000e-05
   9.2000000e-05   5.0631000e-05
   9.3000000e-05   5.0450000e-05
   9.4000000e-05   5.0298000e-05
   9.5000000e-05   5.0173000e-05
   9.6000000e-05   5.0071000e-05
   9.7000000e-05   4.9991000e-05
   9.8000000e-05   4.9932000e-05
   9.9000000e-05   4.9891000e-05
   1.0000000e-04   4.9867000e-05
   1.1000000e-04   5.0347000e-05
   1.2000000e-04   5.1683000e-05
   1.3000000e-04   5.3519000e-05
   1.4000000e-04   5.5680000e-05
   1.5000000e-04   5.8066000e-05
   1.6000000e-04   6.0617000e-05
   1.7000000e-04   6.3294000e-05
   1.8000000e-04   6.6070000e-05
   1.9000000e-04   6.8925000e-05
   2.0000000e-04   7.1846000e-05
   2.1000000e-04   7.4822000e-05
   2.2000000e-04   7.7845000e-05
   2.3000000e-04   8.0906000e-05
   2.4000000e-04   8.4002000e-05
   2.5000000e-04   8.7127000e-05
   2.6000000e-04   9.0277000e-05
   2.7000000e-04   9.3450000e-05
   2.8000000e-04   9.6642000e-05
   2.9000000e-04   9.9851000e-05
   3.0000000e-04   1.0308000e-04
   3.1000000e-04   1.0631000e-04
   3.2000000e-04   1.0956000e-04
   3.3000000e-04   1.1282000e-04
   3.4000000e-04   1.1609000e-04
   3.5000000e-04   1.1936000e-04
   3.6000000e-04   1.2264000e-04
   3.7000000e-04   1.2593000e-04
   3.8000000e-04   1.2923000e-04
   3.9000000e-04   1.3252000e-04
   4.0000000e-04   1.3582000e-04
   4.1000000e-04   1.3913000e-04
   4.2000000e-04   1.4244000e-04
   4.3000000e-04   1.4574000e-04
   4.4000000e-04   1.4906000e-04
   4.5000000e-04   1.5237000e-04
   4.6000000e-04   1.5568000e-04
   4.7000000e-04   1.5899000e-04
   4.8000000e-04   1.6231000e-04
   4.9000000e-04   1.6562000e-04
   5.0000000e-04   1.6894000e-04
   5.1000000e-04   1.7225000e-04
   5.2000000e-04   1.7557000e-04
   5.3000000e-04   1.7888000e-04
   5.4000000e-04   1.8220000e-04
   5.5000000e-04   1.8551000e-04
   5.6000000e-04   1.8882000e-04
   5.7000000e-04   1.9213000e-04
   5.8000000e-04   1.9544000e-04
   5.9000000e-04   1.9875000e-04
   6.0000000e-04   2.0205000e-04
   6.1000000e-04   2.0536000e-04
   6.2000000e-04   2.0866000e-04
   6.3000000e-04   2.1197000e-04
   6.4000000e-04   2.1527000e-04
   6.5000000e-04   2.1857000e-04
   6.6000000e-04   2.2186000e-04
   6.7000000e-04   2.2516000e-04
   6.8000000e-04   2.2845000e-04
   6.9000000e-04   2.3175000e-04
   7.0000000e-04   2.3504000e-04
   7.1000000e-04   2.3833000e-04
   7.2000000e-04   2.4161000e-04
   7.3000000e-04   2.4490000e-04
   7.4000000e-04   2.4818000e-04
   7.5000000e-04   2.5146000e-04
   7.6000000e-04   2.5474000e-04
   7.7000000e-04   2.5802000e-04
   7.8000000e-04   2.6130000e-04
   7.9000000e-04   2.6457000e-04
   8.0000000e-04   2.6784000e-04
   8.1000000e-04   2.7111000e-04
   8.2000000e-04   2.7438000e-04
   8.3000000e-04   2.7765000e-04
   8.4000000e-04   2.8091000e-04
   8.5000000e-04   2.8417000e-04
   8.6000000e-04   2.8743000e-04
   8.7000000e-04   2.9069000e-04
   8.8000000e-04   2.9395000e-04
   8.9000000e-04   2.9720000e-04
   9.0000000e-04   3.0045000e-04
   9.1000000e-04   3.0370000e-04
   9.2000000e-04   3.0695000e-04
   9.3000000e-04   3.1020000e-04
   9.4000000e-04   3.1344000e-04
   9.5000000e-04   3.1669000e-04
   9.6000000e-04   3.1993000e-04
   9.7000000e-04   3.2317000e-04
   9.8000000e-04   3.2640000e-04
   9.9000000e-04   3.2964000e-04
   1.0000000e-03   3.3287000e-04
   1.1000000e-03   3.6509000e-04
   1.2000000e-03   3.9711000e-04
   1.3000000e-03   4.2894000e-04
   1.4000000e-03   4.6058000e-04
   1.5000000e-03   4.9202000e-04
   1.6000000e-03   5.2328000e-04
   1.7000000e-03   5.5434000e-04
   1.8000000e-03   5.8522000e-04
   1.9000000e-03   6.1591000e-04
   2.0000000e-03   6.4642000e-04
   2.1000000e-03   6.7674000e-04
   2.2000000e-03   7.0688000e-04
   2.3000000e-03   7.3684000e-04
   2.4000000e-03   7.6661000e-04
   2.5000000e-03   7.9620000e-04
   2.6000000e-03   8.2562000e-04
   2.7000000e-03   8.5485000e-04
   2.8000000e-03   8.8391000e-04
   2.9000000e-03   9.1279000e-04
   3.0000000e-03   9.4149000e-04
   3.1000000e-03   9.7002000e-04
   3.2000000e-03   9.9837000e-04
   3.3000000e-03   1.0265000e-03
   3.4000000e-03   1.0546000e-03
   3.5000000e-03   1.0824000e-03
   3.6000000e-03   1.1100000e-03
   3.7000000e-03   1.1375000e-03
   3.8000000e-03   1.1649000e-03
   3.9000000e-03   1.1920000e-03
   4.0000000e-03   1.2190000e-03
   4.1000000e-03   1.2458000e-03
   4.2000000e-03   1.2725000e-03
   4.3000000e-03   1.2989000e-03
   4.4000000e-03   1.3253000e-03
   4.5000000e-03   1.3514000e-03
   4.6000000e-03   1.3774000e-03
   4.7000000e-03   1.4032000e-03
   4.8000000e-03   1.4289000e-03
   4.9000000e-03   1.4544000e-03
   5.0000000e-03   1.4797000e-03
   5.1000000e-03   1.5049000e-03
   5.2000000e-03   1.5299000e-03
   5.3000000e-03   1.5548000e-03
   5.4000000e-03   1.5795000e-03
   5.5000000e-03   1.6040000e-03
   5.6000000e-03   1.6284000e-03
   5.7000000e-03   1.6526000e-03
   5.8000000e-03   1.6767000e-03
   5.9000000e-03   1.7006000e-03
   6.0000000e-03   1.7244000e-03
   6.1000000e-03   1.7480000e-03
   6.2000000e-03   1.7715000e-03
   6.3000000e-03   1.7948000e-03
   6.4000000e-03   1.8180000e-03
   6.5000000e-03   1.8410000e-03
   6.6000000e-03   1.8638000e-03
   6.7000000e-03   1.8865000e-03
   6.8000000e-03   1.9091000e-03
   6.9000000e-03   1.9315000e-03
   7.0000000e-03   1.9538000e-03
   7.1000000e-03   1.9759000e-03
   7.2000000e-03   1.9979000e-03
   7.3000000e-03   2.0197000e-03
   7.4000000e-03   2.0414000e-03
   7.5000000e-03   2.0629000e-03
   7.6000000e-03   2.0843000e-03
   7.7000000e-03   2.1055000e-03
   7.8000000e-03   2.1266000e-03
   7.9000000e-03   2.1476000e-03
   8.0000000e-03   2.1684000e-03
   8.1000000e-03   2.1891000e-03
   8.2000000e-03   2.2097000e-03
   8.3000000e-03   2.2301000e-03
   8.4000000e-03   2.2503000e-03
   8.5000000e-03   2.2705000e-03
   8.6000000e-03   2.2904000e-03
   8.7000000e-03   2.3103000e-03
   8.8000000e-03   2.3300000e-03
   8.9000000e-03   2.3496000e-03
   9.0000000e-03   2.3690000e-03
   9.1000000e-03   2.3883000e-03
   9.2000000e-03   2.4075000e-03
   9.3000000e-03   2.4266000e-03
   9.4000000e-03   2.4455000e-03
   9.5000000e-03   2.4642000e-03
   9.6000000e-03   2.4829000e-03
   9.7000000e-03   2.5014000e-03
   9.8000000e-03   2.5198000e-03
   9.9000000e-03   2.5380000e-03
   1.0000000e-02   2.5562000e-03
   1.1000000e-02   2.7304000e-03
   1.2000000e-02   2.8922000e-03
   1.3000000e-02   3.0422000e-03
   1.4000000e-02   3.1808000e-03
   1.5000000e-02   3.3086000e-03
   1.6000000e-02   3.4259000e-03
   1.7000000e-02   3.5333000e-03
   1.8000000e-02   3.6311000e-03
   1.9000000e-02   3.7198000e-03
   2.0000000e-02   3.7998000e-03
   2.1000000e-02   3.8714000e-03
   2.2000000e-02   3.9351000e-03
   2.3000000e-02   3.9912000e-03
   2.4000000e-02   4.0400000e-03
   2.5000000e-02   4.0819000e-03
   2.6000000e-02   4.1172000e-03
   2.7000000e-02   4.1462000e-03
   2.8000000e-02   4.1692000e-03
   2.9000000e-02   4.1866000e-03
   3.0000000e-02   4.1985000e-03
   3.1000000e-02   4.2053000e-03
   3.2000000e-02   4.2073000e-03
   3.3000000e-02   4.2046000e-03
   3.4000000e-02   4.1976000e-03
   3.5000000e-02   4.1865000e-03
   3.6000000e-02   4.1715000e-03
   3.7000000e-02   4.1528000e-03
   3.8000000e-02   4.1306000e-03
   3.9000000e-02   4.1052000e-03
   4.0000000e-02   4.0768000e-03
   4.1000000e-02   4.0455000e-03
   4.2000000e-02   4.0115000e-03
   4.3000000e-02   3.9750000e-03
   4.4000000e-02   3.9362000e-03
   4.5000000e-02   3.8953000e-03
   4.6000000e-02   3.8523000e-03
   4.7000000e-02   3.8075000e-03
   4.8000000e-02   3.7610000e-03
   4.9000000e-02   3.7130000e-03
   5.0000000e-02   3.6635000e-03
   5.1000000e-02   3.6127000e-03
   5.2000000e-02   3.5607000e-03
   5.3000000e-02   3.5077000e-03
   5.4000000e-02   3.4537000e-03
   5.5000000e-02   3.3989000e-03
   5.6000000e-02   3.3434000e-03
   5.7000000e-02   3.2873000e-03
   5.8000000e-02   3.2306000e-03
   5.9000000e-02   3.1735000e-03
   6.0000000e-02   3.1160000e-03
   6.1000000e-02   3.0583000e-03
   6.2000000e-02   3.0003000e-03
   6.3000000e-02   2.9423000e-03
   6.4000000e-02   2.8842000e-03
   6.5000000e-02   2.8261000e-03
   6.6000000e-02   2.7681000e-03
   6.7000000e-02   2.7102000e-03
   6.8000000e-02   2.6526000e-03
   6.9000000e-02   2.5952000e-03
   7.0000000e-02   2.5381000e-03
   7.1000000e-02   2.4814000e-03
   7.2000000e-02   2.4251000e-03
   7.3000000e-02   2.3692000e-03
   7.4000000e-02   2.3138000e-03
   7.5000000e-02   2.2589000e-03
   7.6000000e-02   2.2046000e-03
   7.7000000e-02   2.1508000e-03
   7.8000000e-02   2.0977000e-03
   7.9000000e-02   2.0452000e-03
   8.0000000e-02   1.9934000e-03
   8.1000000e-02   1.9422000e-03
   8.2000000e-02   1.8918000e-03
   8.3000000e-02   1.8421000e-03
   8.4000000e-02   1.7932000e-03
   8.5000000e-02   1.7450000e-03
   8.6000000e-02   1.6975000e-03
   8.7000000e-02   1.6509000e-03
   8.8000000e-02   1.6051000e-03
   8.9000000e-02   1.5601000e-03
   9.0000000e-02   1.5159000e-03
   9.1000000e-02   1.4725000e-03
   9.2000000e-02   1.4299000e-03
   9.3000000e-02   1.3882000e-03
   9.4000000e-02   1.3472000e-03
   9.5000000e-02   1.3072000e-03
   9.6000000e-02   1.2679000e-03
   9.7000000e-02   1.2295000e-03
   9.8000000e-02   1.1919000e-03
   9.9000000e-02   1.1552000e-03
   1.0000000e-01   1.1192000e-03
   1.1000000e-01   8.0386000e-04
   1.2000000e-01   5.6234000e-04
   1.3000000e-01   3.8350000e-04
   1.4000000e-01   2.5513000e-04
   1.5000000e-01   1.6564000e-04
   1.6000000e-01   1.0500000e-04
   1.7000000e-01   6.4989000e-05
   1.8000000e-01   3.9288000e-05
   1.9000000e-01   2.3199000e-05
   2.0000000e-01   1.3382000e-05
   2.1000000e-01   7.5406000e-06
   2.2000000e-01   4.1510000e-06
   2.3000000e-01   2.2324000e-06
   2.4000000e-01   1.1728000e-06
   2.5000000e-01   6.0196000e-07
   2.6000000e-01   3.0182000e-07
   2.7000000e-01   1.4783000e-07
   2.8000000e-01   7.0726000e-08
   2.9000000e-01   3.3053000e-08
   3.0000000e-01   1.5089000e-08
   3.1000000e-01   6.7276000e-09
   3.2000000e-01   2.9299000e-09
   3.3000000e-01   1.2464000e-09
   3.4000000e-01   5.1775000e-10
   3.5000000e-01   2.1004000e-10
   3.6000000e-01   8.3210000e-11
   3.7000000e-01   3.2192000e-11
   3.8000000e-01   1.2162000e-11
   3.9000000e-01   4.4865000e-12
   4.0000000e-01   1.6161000e-12
   4.1000000e-01   5.6841000e-13
   4.2000000e-01   1.9520000e-13
   4.3000000e-01   6.5452000e-14
   4.4000000e-01   2.1427000e-14
   4.5000000e-01   6.8484000e-15
   4.6000000e-01   2.1370000e-15
   4.7000000e-01   6.5100000e-16
   4.8000000e-01   1.9361000e-16
   4.9000000e-01   5.6212000e-17
   5.0000000e-01   1.5932000e-17
   5.1000000e-01   4.4080000e-18
   5.2000000e-01   1.1905000e-18
   5.3000000e-01   3.1389000e-19
   5.4000000e-01   8.0780000e-20
   5.5000000e-01   2.0293000e-20
   5.6000000e-01   4.9760000e-21
   5.7000000e-01   1.1910000e-21
   5.8000000e-01   2.7824000e-22
   5.9000000e-01   6.3447000e-23
   6.0000000e-01   1.4121000e-23
   6.1000000e-01   3.0676000e-24
   6.2000000e-01   6.5042000e-25
   6.3000000e-01   1.3460000e-25
   6.4000000e-01   2.7186000e-26
   6.5000000e-01   5.3590000e-27
   6.6000000e-01   1.0310000e-27
   6.7000000e-01   1.9359000e-28
   6.8000000e-01   3.5477000e-29
   6.9000000e-01   6.3449000e-30
   7.0000000e-01   1.1075000e-30
   7.1000000e-01   1.8865000e-31
   7.2000000e-01   3.1361000e-32
   7.3000000e-01   5.0880000e-33
   7.4000000e-01   8.0559000e-34
   7.5000000e-01   1.2447000e-34
   7.6000000e-01   1.8769000e-35
   7.7000000e-01   2.7620000e-36
   7.8000000e-01   3.9663000e-37
   7.9000000e-01   5.5583000e-38
   8.0000000e-01   7.6013000e-39
   8.1000000e-01   1.0144000e-39
   8.2000000e-01   1.3211000e-40
   8.3000000e-01   1.6790000e-41
   8.4000000e-01   2.0822000e-42
   8.5000000e-01   2.5199000e-43
   8.6000000e-01   2.9758000e-44
   8.7000000e-01   3.4293000e-45
   8.8000000e-01   3.8564000e-46
   8.9000000e-01   4.2318000e-47
   9.0000000e-01   4.5313000e-48
   9.1000000e-01   4.7347000e-49
   9.2000000e-01   4.8275000e-50
   9.3000000e-01   4.8030000e-51
   9.4000000e-01   4.6960000e-52
   9.5000000e-01   4.4173000e-53
   9.6000000e-01   4.0833000e-54
   9.7000000e-01   3.6832000e-55
   9.8000000e-01   3.2417000e-56
   9.9000000e-01   2.7841000e-57
